Wavelength	Transmittance	hex_color	Manufacturer	Name	Filter Number
380	6.42		Omega	555DF10 Bandpass	W3855
381	6.798				
382	6.916				
383	6.235				
384	6.435				
385	6.547				
386	6.526				
387	6.488				
388	5.798				
389	5.552				
390	5.802				
391	6.406				
392	6.534				
393	6.723				
394	6.046				
395	6.283				
396	6.781				
397	6.408				
398	10.0				
399	6.122				
400	6.297				
401	6.181				
402	6.138				
403	6.436				
404	6.412				
405	6.328				
406	6.126				
407	6.257				
408	6.234				
409	10.0				
410	6.479				
411	6.257				
412	6.154				
413	6.375				
414	6.831				
415	6.51				
416	6.294				
417	6.23				
418	10.0				
419	6.582				
420	6.28				
421	6.733				
422	7.609				
423	6.509				
424	7.032				
425	6.175				
426	7.324				
427	6.375				
428	6.359				
429	6.924				
430	10.0				
431	6.095				
432	6.236				
433	6.409				
434	10.0				
435	6.171				
436	6.581				
437	6.245				
438	6.085				
439	6.311				
440	6.521				
441	6.559				
442	6.134				
443	6.243				
444	5.894				
445	5.57				
446	5.696				
447	5.886				
448	5.904				
449	6.093				
450	5.856				
451	5.841				
452	5.951				
453	6.661				
454	6.035				
455	6.013				
456	6.124				
457	5.927				
458	5.726				
459	5.87				
460	5.913				
461	5.752				
462	5.535				
463	5.38				
464	5.3				
465	5.245				
466	5.194				
467	5.218				
468	5.171				
469	5.12				
470	5.164				
471	5.197				
472	5.184				
473	5.056				
474	4.975				
475	4.879				
476	4.91				
477	5.038				
478	5.3				
479	5.624				
480	5.95				
481	6.5				
482	7.14				
483	10.0				
484	10.0				
485	6.918				
486	6.543				
487	10.0				
488	10.0				
489	6.673				
490	6.48				
491	5.818				
492	5.563				
493	5.979				
494	6.458				
495	10.0				
496	6.635				
497	10.0				
498	6.737				
499	10.0				
500	10.0				
501	6.387				
502	7.632				
503	10.0				
504	6.415				
505	6.606				
506	6.801				
507	6.348				
508	10.0				
509	6.609				
510	10.0				
511	10.0				
512	6.373				
513	10.0				
514	10.0				
515	10.0				
516	10.0				
517	6.508				
518	6.956				
519	6.509				
520	6.877				
521	7.354				
522	6.277				
523	10.0				
524	7.353				
525	6.615				
526	10.0				
527	6.577				
528	6.452				
529	7.183				
530	6.655				
531	6.658				
532	6.809				
533	6.275				
534	6.654				
535	6.073				
536	6.174				
537	5.978				
538	5.976				
539	5.699				
540	5.492				
541	5.256				
542	4.888				
543	4.291				
544	3.634				
545	3.005				
546	2.269				
547	1.324				
548	0.6				
549	0.226				
550	0.078				
551	0.039				
552	0.04				
553	0.05				
554	0.043				
555	0.023				
556	0.014				
557	0.117				
558	0.547				
559	0.901				
560	1.238				
561	1.498				
562	2.343				
563	3.012				
564	3.574				
565	4.093				
566	4.508				
567	4.83				
568	5.141				
569	5.374				
570	5.532				
571	5.844				
572	5.924				
573	5.914				
574	5.803				
575	6.185				
576	6.356				
577	10.0				
578	6.105				
579	6.208				
580	6.413				
581	6.351				
582	10.0				
583	7.149				
584	6.347				
585	10.0				
586	7.619				
587	6.441				
588	7.315				
589	7.026				
590	7.622				
591	6.37				
592	10.0				
593	10.0				
594	10.0				
595	10.0				
596	6.664				
597	6.659				
598	10.0				
599	6.423				
600	10.0				
601	6.808				
602	10.0				
603	6.964				
604	10.0				
605	10.0				
606	10.0				
607	7.732				
608	10.0				
609	10.0				
610	6.539				
611	10.0				
612	6.412				
613	10.0				
614	6.958				
615	10.0				
616	6.942				
617	5.995				
618	6.345				
619	6.365				
620	6.142				
621	10.0				
622	6.39				
623	6.932				
624	7.158				
625	6.396				
626	6.857				
627	6.119				
628	6.049				
629	7.021				
630	6.087				
631	6.107				
632	6.554				
633	5.347				
634	4.906				
635	5.076				
636	5.7				
637	6.069				
638	6.145				
639	6.628				
640	10.0				
641	10.0				
642	6.119				
643	10.0				
644	7.402				
645	10.0				
646	6.949				
647	7.403				
648	6.759				
649	6.537				
650	10.0				
651	10.0				
652	6.122				
653	6.585				
654	6.572				
655	7.19				
656	6.083				
657	5.517				
658	5.075				
659	4.957				
660	5.107				
661	5.239				
662	5.218				
663	5.212				
664	5.385				
665	5.688				
666	6.215				
667	6.327				
668	6.325				
669	5.999				
670	6.9				
671	6.706				
672	6.413				
673	10.0				
674	6.537				
675	6.66				
676	6.757				
677	6.262				
678	6.892				
679	6.289				
680	5.905				
681	5.729				
682	5.539				
683	5.407				
684	5.394				
685	5.463				
686	5.497				
687	5.519				
688	5.468				
689	5.523				
690	5.651				
691	5.764				
692	5.914				
693	6.208				
694	5.972				
695	6.282				
696	6.489				
697	6.249				
698	6.611				
699	6.947				
700	6.529				
701	6.898				
702	6.533				
703	6.256				
704	6.584				
705	10.0				
706	10.0				
707	6.637				
708	6.211				
709	6.878				
710	6.41				
711	6.232				
712	6.138				
713	5.882				
714	5.89				
715	5.976				
716	6.274				
717	6.581				
718	7.184				
719	7.044				
720	6.394				
721	6.361				
722	10.0				
723	6.382				
724	6.798				
725	10.0				
726	7.058				
727	10.0				
728	10.0				
729	6.413				
730	7.699				
731	6.205				
732	7.365				
733	6.931				
734	10.0				
735	6.802				
736	6.332				
737	10.0				
738	6.397				
739	6.126				
740	6.685				
741	6.266				
742	6.776				
743	10.0				
744	6.41				
745	10.0				
746	7.352				
747	6.434				
748	10.0				
749	6.518				
750	6.673				
751	6.315				
752	6.493				
753	6.597				
754	6.635				
755	6.726				
756	6.121				
757	6.402				
758	10.0				
759	10.0				
760	6.501				
761	10.0				
762	7.402				
763	10.0				
764	10.0				
765	6.411				
766	6.536				
767	5.922				
768	6.264				
769	6.587				
770	6.01				
771	10.0				
772	6.648				
773	6.671				
774	6.507				
775	7.019				
776	10.0				
777	6.545				
778	6.349				
779	5.964				
780	6.432				
781	10.0				
782	10.0				
783	6.262				
784	10.0				
785	6.286				
786	10.0				
787	7.161				
788	5.754				
789	10.0				
790	10.0				
791	10.0				
792	10.0				
793	6.236				
794	6.416				
795	10.0				
796	7.33				
797	10.0				
798	6.646				
799	10.0				
800	10.0				
801	10.0				
802	10.0				
803	10.0				
804	6.514				
805	5.535				
806	5.752				
807	10.0				
808	10.0				
809	10.0				
810	5.997				
811	5.734				
812	6.093				
813	5.635				
814	5.535				
815	6.213				
816	5.512				
817	5.135				
818	5.169				
819	5.107				
820	5.16				
821	5.203				
822	5.235				
823	5.187				
824	5.342				
825	5.2				
826	5.327				
827	5.185				
828	5.77				
829	5.283				
830	5.42				
831	5.621				
832	5.728				
833	5.27				
834	5.794				
835	5.966				
836	6.606				
837	6.244				
838	10.0				
839	5.4				
840	10.0				
841	5.921				
842	5.433				
843	10.0				
844	5.449				
845	5.428				
846	5.291				
847	4.989				
848	5.015				
849	4.842				
850	4.758				
851	5.001				
852	5.394				
853	4.893				
854	4.502				
855	4.863				
856	5.221				
857	5.145				
858	10.0				
859	5.067				
860	10.0				
861	4.768				
862	4.76				
863	4.768				
864	10.0				
865	10.0				
866	4.306				
867	10.0				
868	10.0				
869	5.491				
870	4.534				
871	4.458				
872	5.233				
873	4.147				
874	4.645				
875	4.221				
876	10.0				
877	4.804				
878	4.9				
879	4.959				
880	5.175				
881	5.049				
882	6.339				
883	5.508				
884	4.859				
885	5.566				
886	5.368				
887	5.585				
888	5.101				
889	5.365				
890	5.284				
891	5.47				
892	5.017				
893	5.502				
894	4.989				
895	5.101				
896	5.463				
897	5.457				
898	5.389				
899	5.351				
900	5.169				
901	4.842				
902	5.176				
903	5.865				
904	5.593				
905	5.826				
906	5.62				
907	5.25				
908	5.183				
909	5.444				
910	5.336				
911	6.78				
912	5.007				
913	6.204				
914	10.0				
915	7.225				
916	5.36				
917	5.256				
918	5.408				
919	5.527				
920	10.0				
921	5.471				
922	6.048				
923	5.478				
924	5.759				
925	5.065				
926	10.0				
927	5.362				
928	5.118				
929	5.295				
930	5.114				
931	5.627				
932	5.334				
933	5.349				
934	5.016				
935	5.07				
936	5.118				
937	5.008				
938	5.167				
939	5.026				
940	5.117				
941	5.096				
942	5.063				
943	4.99				
944	5.113				
945	5.031				
946	5.148				
947	5.023				
948	5.143				
949	5.12				
950	5.02				
951	5.145				
952	5.193				
953	5.159				
954	5.112				
955	5.223				
956	5.144				
957	5.03				
958	5.092				
959	5.11				
960	5.192				
961	5.123				
962	5.008				
963	5.068				
964	5.066				
965	5.025				
966	5.064				
967	5.062				
968	4.981				
969	5.084				
970	5.101				
971	5.075				
972	5.157				
973	5.049				
974	4.98				
975	4.929				
976	4.993				
977	5.028				
978	5.044				
979	5.041				
980	5.0				
981	4.934				
982	4.964				
983	4.855				
984	4.935				
985	4.876				
986	4.895				
987	4.915				
988	4.853				
989	4.924				
990	4.894				
991	4.871				
992	4.887				
993	4.951				
994	4.936				
995	4.949				
996	4.968				
997	4.99				
998	5.026				
999	4.876				
1000	4.944				
1001	4.955				
1002	5.075				
1003	4.971				
1004	4.986				
1005	5.007				
1006	5.088				
1007	5.002				
1008	5.125				
1009	5.176				
1010	5.149				
1011	5.126				
1012	5.069				
1013	5.007				
1014	5.11				
1015	5.04				
1016	5.083				
1017	5.109				
1018	5.051				
1019	5.116				
1020	4.949				
1021	5.089				
1022	5.167				
1023	5.244				
1024	5.083				
1025	4.981				
1026	4.978				
1027	5.001				
1028	4.963				
1029	5.062				
1030	5.0				
1031	4.947				
1032	4.947				
1033	4.912				
1034	4.913				
1035	4.891				
1036	4.895				
1037	4.852				
1038	4.902				
1039	4.918				
1040	4.948				
1041	4.834				
1042	4.794				
1043	4.849				
1044	4.811				
1045	4.811				
1046	4.81				
1047	4.79				
1048	4.813				
1049	4.791				
1050	4.867				
