Wavelength	Transmittance	hex_color	Manufacturer	Name	Filter Number
300	5.228		Omega	540AF30 Bandpass	W4698
301	5.881				
302	10.0				
303	10.0				
304	10.0				
305	5.321				
306	10.0				
307	10.0				
308	10.0				
309	10.0				
310	5.388				
311	10.0				
312	5.434				
313	10.0				
314	10.0				
315	10.0				
316	5.073				
317	4.979				
318	10.0				
319	10.0				
320	5.29				
321	5.584				
322	10.0				
323	5.55				
324	5.415				
325	5.318				
326	10.0				
327	5.246				
328	10.0				
329	5.872				
330	5.737				
331	5.323				
332	10.0				
333	10.0				
334	6.246				
335	10.0				
336	10.0				
337	5.143				
338	10.0				
339	10.0				
340	10.0				
341	10.0				
342	10.0				
343	5.344				
344	5.57				
345	5.077				
346	10.0				
347	10.0				
348	10.0				
349	4.77				
350	5.195				
351	5.967				
352	10.0				
353	5.933				
354	5.329				
355	4.947				
356	5.822				
357	10.0				
358	10.0				
359	10.0				
360	10.0				
361	5.54				
362	5.492				
363	10.0				
364	10.0				
365	10.0				
366	5.738				
367	5.695				
368	5.647				
369	10.0				
370	5.709				
371	10.0				
372	6.246				
373	10.0				
374	10.0				
375	10.0				
376	10.0				
377	5.661				
378	10.0				
379	6.939				
380	10.0				
381	6.339				
382	10.0				
383	6.0				
384	10.0				
385	6.032				
386	10.0				
387	10.0				
388	10.0				
389	10.0				
390	6.681				
391	10.0				
392	10.0				
393	6.177				
394	7.191				
395	10.0				
396	6.119				
397	6.662				
398	10.0				
399	6.161				
400	10.0				
401	10.0				
402	6.844				
403	6.327				
404	10.0				
405	6.643				
406	6.523				
407	6.397				
408	6.015				
409	7.391				
410	10.0				
411	10.0				
412	6.379				
413	10.0				
414	6.471				
415	6.722				
416	6.347				
417	6.429				
418	6.562				
419	6.942				
420	6.522				
421	6.436				
422	6.969				
423	7.592				
424	10.0				
425	6.659				
426	6.257				
427	6.981				
428	7.085				
429	6.696				
430	10.0				
431	6.305				
432	6.737				
433	7.565				
434	10.0				
435	10.0				
436	6.682				
437	6.792				
438	10.0				
439	10.0				
440	6.377				
441	10.0				
442	10.0				
443	10.0				
444	7.085				
445	6.961				
446	6.425				
447	10.0				
448	6.339				
449	6.561				
450	6.622				
451	10.0				
452	7.352				
453	6.553				
454	6.287				
455	6.382				
456	6.488				
457	10.0				
458	10.0				
459	6.727				
460	6.52				
461	6.36				
462	6.655				
463	6.409				
464	6.559				
465	6.98				
466	10.0				
467	6.643				
468	6.154				
469	6.8				
470	6.413				
471	10.0				
472	6.461				
473	6.276				
474	6.302				
475	6.305				
476	6.374				
477	6.496				
478	6.767				
479	6.669				
480	6.262				
481	6.566				
482	6.272				
483	6.352				
484	6.414				
485	6.394				
486	6.174				
487	5.714				
488	5.958				
489	6.03				
490	6.016				
491	5.95				
492	5.969				
493	5.876				
494	5.836				
495	5.614				
496	5.607				
497	5.529				
498	5.41				
499	5.296				
500	5.149				
501	5.049				
502	4.995				
503	4.838				
504	4.673				
505	4.548				
506	4.404				
507	4.252				
508	4.124				
509	3.967				
510	3.814				
511	3.672				
512	3.503				
513	3.321				
514	3.133				
515	2.934				
516	2.713				
517	2.478				
518	2.23				
519	1.969				
520	1.7				
521	1.428				
522	1.161				
523	0.907				
524	0.672				
525	0.464				
526	0.304				
527	0.199				
528	0.145				
529	0.133				
530	0.135				
531	0.141				
532	0.144				
533	0.146				
534	0.146				
535	0.146				
536	0.15				
537	0.152				
538	0.156				
539	0.157				
540	0.157				
541	0.155				
542	0.156				
543	0.159				
544	0.166				
545	0.176				
546	0.191				
547	0.199				
548	0.211				
549	0.222				
550	0.23				
551	0.235				
552	0.241				
553	0.241				
554	0.352				
555	0.666				
556	1.129				
557	1.507				
558	1.888				
559	2.352				
560	3.244				
561	3.957				
562	4.446				
563	4.746				
564	4.925				
565	5.047				
566	5.101				
567	5.237				
568	5.323				
569	5.489				
570	5.489				
571	5.531				
572	5.511				
573	5.679				
574	5.702				
575	5.815				
576	5.95				
577	5.977				
578	5.955				
579	5.952				
580	6.239				
581	6.207				
582	6.258				
583	10.0				
584	6.432				
585	7.307				
586	6.767				
587	6.95				
588	7.095				
589	6.623				
590	6.69				
591	6.54				
592	7.232				
593	7.408				
594	8.07				
595	7.541				
596	6.633				
597	7.04				
598	10.0				
599	10.0				
600	6.946				
601	10.0				
602	7.773				
603	7.586				
604	8.134				
605	7.258				
606	6.881				
607	8.134				
608	7.375				
609	7.487				
610	7.195				
611	10.0				
612	10.0				
613	10.0				
614	6.782				
615	7.079				
616	10.0				
617	10.0				
618	10.0				
619	10.0				
620	7.007				
621	10.0				
622	10.0				
623	10.0				
624	10.0				
625	7.378				
626	10.0				
627	7.301				
628	10.0				
629	10.0				
630	10.0				
631	10.0				
632	10.0				
633	10.0				
634	10.0				
635	10.0				
636	10.0				
637	10.0				
638	10.0				
639	7.185				
640	10.0				
641	6.878				
642	7.762				
643	10.0				
644	7.33				
645	7.06				
646	7.242				
647	7.556				
648	6.908				
649	7.423				
650	6.793				
651	7.327				
652	10.0				
653	10.0				
654	10.0				
655	10.0				
656	6.627				
657	7.43				
658	10.0				
659	10.0				
660	10.0				
661	10.0				
662	7.014				
663	7.097				
664	10.0				
665	10.0				
666	10.0				
667	10.0				
668	8.09				
669	7.541				
670	6.68				
671	7.289				
672	10.0				
673	10.0				
674	10.0				
675	6.743				
676	10.0				
677	10.0				
678	10.0				
679	7.048				
680	7.161				
681	6.482				
682	7.312				
683	10.0				
684	6.616				
685	10.0				
686	6.221				
687	10.0				
688	10.0				
689	10.0				
690	6.204				
691	10.0				
692	6.828				
693	7.515				
694	6.735				
695	7.141				
696	6.237				
697	10.0				
698	6.785				
699	10.0				
700	10.0				
701	7.018				
702	6.768				
703	10.0				
704	10.0				
705	10.0				
706	10.0				
707	6.691				
708	6.263				
709	6.203				
710	10.0				
711	10.0				
712	10.0				
713	6.419				
714	10.0				
715	6.596				
716	6.471				
717	10.0				
718	10.0				
719	10.0				
720	10.0				
721	10.0				
722	10.0				
723	6.305				
724	10.0				
725	10.0				
726	6.504				
727	6.304				
728	6.508				
729	10.0				
730	6.367				
731	10.0				
732	6.24				
733	10.0				
734	6.062				
735	6.273				
736	6.945				
737	6.042				
738	6.29				
739	10.0				
740	6.104				
741	10.0				
742	6.035				
743	10.0				
744	6.157				
745	6.243				
746	10.0				
747	10.0				
748	6.523				
749	10.0				
750	5.842				
751	10.0				
752	6.586				
753	6.011				
754	6.191				
755	5.661				
756	10.0				
757	10.0				
758	6.526				
759	10.0				
760	5.951				
761	6.808				
762	5.75				
763	6.989				
764	10.0				
765	10.0				
766	6.196				
767	5.854				
768	5.993				
769	10.0				
770	6.281				
771	10.0				
772	10.0				
773	6.623				
774	6.369				
775	6.611				
776	10.0				
777	6.044				
778	6.333				
779	6.518				
780	5.86				
781	10.0				
782	5.979				
783	5.821				
784	5.829				
785	10.0				
786	5.734				
787	10.0				
788	10.0				
789	10.0				
790	6.165				
791	6.182				
792	5.643				
793	6.986				
794	10.0				
795	10.0				
796	10.0				
797	10.0				
798	7.255				
799	10.0				
800	10.0				
801	10.0				
802	10.0				
803	10.0				
804	10.0				
805	6.232				
806	5.672				
807	10.0				
808	10.0				
809	10.0				
810	6.089				
811	10.0				
812	10.0				
813	10.0				
814	10.0				
815	5.34				
816	6.14				
817	10.0				
818	10.0				
819	10.0				
820	5.836				
821	5.487				
822	10.0				
823	5.962				
824	10.0				
825	10.0				
826	5.707				
827	10.0				
828	5.396				
829	10.0				
830	10.0				
831	5.778				
832	5.313				
833	10.0				
834	6.522				
835	5.914				
836	5.229				
837	5.938				
838	10.0				
839	5.016				
840	5.036				
841	6.462				
842	10.0				
843	5.022				
844	10.0				
845	5.647				
846	4.866				
847	5.144				
848	4.882				
849	4.965				
850	4.868				
851	10.0				
852	5.637				
853	10.0				
854	10.0				
855	10.0				
856	5.319				
857	10.0				
858	5.213				
859	4.54				
860	4.491				
861	10.0				
862	10.0				
863	5.345				
864	10.0				
865	10.0				
866	10.0				
867	4.203				
868	10.0				
869	10.0				
870	10.0				
871	4.574				
872	4.102				
873	4.014				
874	10.0				
875	4.127				
876	10.0				
877	4.299				
878	3.9				
879	3.943				
880	4.106				
881	4.053				
882	3.614				
883	4.971				
884	5.143				
885	4.958				
886	4.922				
887	5.217				
888	10.0				
889	10.0				
890	10.0				
891	10.0				
892	10.0				
893	10.0				
894	5.304				
895	10.0				
896	5.908				
897	5.232				
898	5.092				
899	5.448				
900	6.974				
901	6.093				
902	5.425				
903	5.264				
904	10.0				
905	5.402				
906	5.701				
907	10.0				
908	5.738				
909	5.239				
910	10.0				
911	5.183				
912	5.713				
913	10.0				
914	10.0				
915	5.639				
916	5.597				
917	5.567				
918	10.0				
919	10.0				
920	5.915				
921	10.0				
922	5.139				
923	5.208				
924	10.0				
925	10.0				
926	10.0				
927	10.0				
928	10.0				
929	5.481				
930	5.155				
931	5.584				
932	10.0				
933	10.0				
934	5.456				
935	10.0				
936	10.0				
937	5.464				
938	10.0				
939	10.0				
940	5.494				
941	5.929				
942	7.382				
943	10.0				
944	10.0				
945	10.0				
946	5.207				
947	5.494				
948	10.0				
949	10.0				
950	5.662				
951	5.811				
952	10.0				
953	5.909				
954	6.783				
955	6.183				
956	6.188				
957	5.555				
958	5.646				
959	10.0				
960	5.547				
961	10.0				
962	6.447				
963	5.85				
964	6.503				
965	10.0				
966	10.0				
967	10.0				
968	5.952				
969	5.303				
970	6.245				
971	10.0				
972	10.0				
973	5.966				
974	5.773				
975	10.0				
976	5.718				
977	6.723				
978	5.65				
979	5.832				
980	6.167				
981	10.0				
982	10.0				
983	6.172				
984	5.694				
985	10.0				
986	10.0				
987	10.0				
988	6.172				
989	10.0				
990	10.0				
991	5.892				
992	10.0				
993	7.307				
994	5.724				
995	5.983				
996	10.0				
997	10.0				
998	10.0				
999	5.942				
1000	10.0				
1001	10.0				
1002	6.087				
1003	10.0				
1004	10.0				
1005	6.427				
1006	5.774				
1007	8.752				
1008	10.0				
1009	6.459				
1010	6.223				
1011	10.0				
1012	10.0				
1013	6.922				
1014	6.145				
1015	10.0				
1016	10.0				
1017	10.0				
1018	5.876				
1019	10.0				
1020	10.0				
1021	6.638				
1022	7.229				
1023	10.0				
1024	6.144				
1025	7.207				
1026	10.0				
1027	10.0				
1028	5.873				
1029	6.141				
1030	5.58				
1031	10.0				
1032	10.0				
1033	10.0				
1034	6.498				
1035	5.921				
1036	5.98				
1037	10.0				
1038	10.0				
1039	10.0				
1040	10.0				
1041	10.0				
1042	10.0				
1043	10.0				
1044	5.738				
1045	10.0				
1046	10.0				
1047	6.054				
1048	10.0				
1049	7.189				
1050	10.0				
1051	6.406				
1052	10.0				
1053	10.0				
1054	10.0				
1055	5.955				
1056	7.51				
1057	10.0				
1058	6.186				
1059	10.0				
1060	10.0				
1061	7.408				
1062	10.0				
1063	10.0				
1064	6.623				
1065	5.812				
1066	5.89				
1067	6.212				
1068	6.536				
1069	10.0				
1070	10.0				
1071	10.0				
1072	10.0				
1073	10.0				
1074	6.301				
1075	6.781				
1076	6.244				
1077	6.136				
1078	10.0				
1079	10.0				
1080	10.0				
1081	6.265				
1082	10.0				
1083	10.0				
1084	6.447				
1085	6.726				
1086	10.0				
1087	10.0				
1088	6.398				
1089	10.0				
1090	6.262				
1091	6.373				
1092	10.0				
1093	10.0				
1094	10.0				
1095	10.0				
1096	10.0				
1097	6.39				
1098	10.0				
1099	10.0				
1100	6.034				
