Wavelength	Transmittance	hex_color	Manufacturer	Name	Filter Number
300	0.0		Chroma		AT705/30m
301	0.0				
302	0.0				
303	0.0				
304	0.0				
305	0.0				
306	0.0				
307	0.0				
308	0.0				
309	0.0				
310	0.0				
311	0.0				
312	0.0				
313	0.0				
314	0.0				
315	0.0				
316	0.0				
317	0.0				
318	0.0				
319	0.0				
320	0.0				
321	0.0				
322	0.0				
323	0.0				
324	0.0				
325	0.0				
326	0.0				
327	0.0				
328	0.0				
329	0.0				
330	0.0				
331	0.0				
332	0.0				
333	0.0				
334	0.0				
335	0.0				
336	0.0				
337	0.0				
338	0.0				
339	0.0				
340	0.0				
341	0.0				
342	0.0				
343	0.0				
344	0.0				
345	0.001				
346	0.002				
347	0.009				
348	0.031				
349	0.112				
350	0.191				
351	0.221				
352	0.346				
353	0.536				
354	0.3				
355	0.072				
356	0.027				
357	0.062				
358	0.066				
359	0.042				
360	0.034				
361	0.024				
362	0.035				
363	0.013				
364	0.006				
365	0.002				
366	0.001				
367	0.003				
368	0.001				
369	0.0				
370	0.0				
371	0.0				
372	0.0				
373	0.0				
374	0.0				
375	0.0				
376	0.0				
377	0.001				
378	0.001				
379	0.001				
380	0.002				
381	0.001				
382	0.001				
383	0.001				
384	0.001				
385	0.001				
386	0.001				
387	0.0				
388	0.001				
389	0.001				
390	0.0				
391	0.0				
392	0.0				
393	0.0				
394	0.0				
395	0.0				
396	0.0				
397	0.0				
398	0.0				
399	0.0				
400	0.0				
401	0.0				
402	0.0				
403	0.0				
404	0.0				
405	0.0				
406	0.0				
407	0.0				
408	0.0				
409	0.0				
410	0.0				
411	0.0				
412	0.0				
413	0.0				
414	0.0				
415	0.0				
416	0.0				
417	0.0				
418	0.0				
419	0.0				
420	0.0				
421	0.0				
422	0.0				
423	0.0				
424	0.0				
425	0.0				
426	0.0				
427	0.0				
428	0.0				
429	0.0				
430	0.0				
431	0.0				
432	0.0				
433	0.0				
434	0.0				
435	0.0				
436	0.0				
437	0.0				
438	0.0				
439	0.0				
440	0.0				
441	0.0				
442	0.0				
443	0.0				
444	0.0				
445	0.0				
446	0.0				
447	0.0				
448	0.0				
449	0.0				
450	0.0				
451	0.0				
452	0.0				
453	0.0				
454	0.0				
455	0.0				
456	0.0				
457	0.0				
458	0.0				
459	0.0				
460	0.0				
461	0.0				
462	0.0				
463	0.0				
464	0.0				
465	0.0				
466	0.0				
467	0.0				
468	0.0				
469	0.0				
470	0.0				
471	0.0				
472	0.0				
473	0.0				
474	0.0				
475	0.0				
476	0.0				
477	0.0				
478	0.0				
479	0.0				
480	0.0				
481	0.0				
482	0.0				
483	0.0				
484	0.0				
485	0.0				
486	0.0				
487	0.0				
488	0.0				
489	0.0				
490	0.0				
491	0.0				
492	0.0				
493	0.0				
494	0.0				
495	0.0				
496	0.0				
497	0.001				
498	0.0				
499	0.0				
500	0.0				
501	0.0				
502	0.0				
503	0.0				
504	0.0				
505	0.0				
506	0.0				
507	0.0				
508	0.0				
509	0.0				
510	0.0				
511	0.0				
512	0.0				
513	0.0				
514	0.0				
515	0.0				
516	0.0				
517	0.0				
518	0.0				
519	0.0				
520	0.0				
521	0.0				
522	0.0				
523	0.0				
524	0.0				
525	0.0				
526	0.0				
527	0.0				
528	0.0				
529	0.0				
530	0.0				
531	0.0				
532	0.0				
533	0.0				
534	0.0				
535	0.0				
536	0.0				
537	0.0				
538	0.0				
539	0.0				
540	0.0				
541	0.0				
542	0.0				
543	0.0				
544	0.0				
545	0.0				
546	0.0				
547	0.0				
548	0.0				
549	0.0				
550	0.0				
551	0.0				
552	0.0				
553	0.0				
554	0.0				
555	0.0				
556	0.0				
557	0.0				
558	0.0				
559	0.0				
560	0.0				
561	0.0				
562	0.0				
563	0.0				
564	0.0				
565	0.0				
566	0.0				
567	0.0				
568	0.0				
569	0.0				
570	0.0				
571	0.0				
572	0.0				
573	0.0				
574	0.0				
575	0.0				
576	0.0				
577	0.0				
578	0.0				
579	0.0				
580	0.0				
581	0.0				
582	0.0				
583	0.0				
584	0.0				
585	0.0				
586	0.0				
587	0.0				
588	0.0				
589	0.0				
590	0.0				
591	0.0				
592	0.0				
593	0.0				
594	0.0				
595	0.0				
596	0.0				
597	0.0				
598	0.0				
599	0.0				
600	0.0				
601	0.0				
602	0.0				
603	0.0				
604	0.0				
605	0.0				
606	0.0				
607	0.0				
608	0.0				
609	0.0				
610	0.0				
611	0.0				
612	0.0				
613	0.0				
614	0.0				
615	0.0				
616	0.0				
617	0.0				
618	0.0				
619	0.0				
620	0.0				
621	0.0				
622	0.0				
623	0.0				
624	0.0				
625	0.0				
626	0.0				
627	0.0				
628	0.0				
629	0.0				
630	0.0				
631	0.0				
632	0.0				
633	0.0				
634	0.0				
635	0.0				
636	0.0				
637	0.0				
638	0.0				
639	0.0				
640	0.0				
641	0.0				
642	0.0				
643	0.0				
644	0.0				
645	0.0				
646	0.0				
647	0.0				
648	0.0				
649	0.0				
650	0.0				
651	0.0				
652	0.0				
653	0.0				
654	0.0				
655	0.0				
656	0.0				
657	0.0				
658	0.0				
659	0.0				
660	0.0				
661	0.0				
662	0.0				
663	0.0				
664	0.0				
665	0.0				
666	0.0				
667	0.0				
668	0.0				
669	0.0				
670	0.0				
671	0.0				
672	0.0				
673	0.0				
674	0.0				
675	0.0				
676	0.001				
677	0.001				
678	0.002				
679	0.005				
680	0.011				
681	0.026				
682	0.049				
683	0.089				
684	0.175				
685	0.402				
686	1.105				
687	3.88				
688	15.743				
689	48.899				
690	80.442				
691	89.51				
692	92.52				
693	93.164				
694	91.806				
695	90.485				
696	90.92				
697	92.615				
698	94.029				
699	93.866				
700	92.765				
701	92.105				
702	92.746				
703	94.009				
704	94.809				
705	94.871				
706	94.767				
707	94.87				
708	94.813				
709	93.89				
710	92.189				
711	90.639				
712	90.358				
713	91.346				
714	92.432				
715	92.11				
716	90.024				
717	87.589				
718	86.278				
719	85.277				
720	79.224				
721	61.251				
722	37.125				
723	19.137				
724	9.649				
725	5.203				
726	3.022				
727	1.941				
728	1.368				
729	1.052				
730	0.908				
731	0.792				
732	0.699				
733	0.594				
734	0.464				
735	0.335				
736	0.231				
737	0.16				
738	0.115				
739	0.088				
740	0.069				
741	0.058				
742	0.05				
743	0.043				
744	0.036				
745	0.029				
746	0.022				
747	0.017				
748	0.012				
749	0.01				
750	0.008				
751	0.007				
752	0.006				
753	0.006				
754	0.005				
755	0.005				
756	0.004				
757	0.003				
758	0.002				
759	0.002				
760	0.001				
761	0.001				
762	0.001				
763	0.0				
764	0.001				
765	0.0				
766	0.0				
767	0.0				
768	0.001				
769	0.001				
770	0.001				
771	0.001				
772	0.001				
773	0.0				
774	0.0				
775	0.0				
776	0.0				
777	0.0				
778	0.0				
779	0.0				
780	0.0				
781	0.0				
782	0.0				
783	0.0				
784	0.0				
785	0.0				
786	0.0				
787	0.0				
788	0.0				
789	0.0				
790	0.0				
791	0.0				
792	0.0				
793	0.0				
794	0.0				
795	0.0				
796	0.0				
797	0.0				
798	0.0				
799	0.0				
800	0.0				
801	0.0				
802	0.0				
803	0.0				
804	0.0				
805	0.0				
806	0.0				
807	0.0				
808	0.0				
809	0.0				
810	0.0				
811	0.0				
812	0.0				
813	0.0				
814	0.0				
815	0.0				
816	0.0				
817	0.0				
818	0.0				
819	0.0				
820	0.0				
821	0.0				
822	0.0				
823	0.0				
824	0.0				
825	0.0				
826	0.0				
827	0.0				
828	0.0				
829	0.0				
830	0.0				
831	0.0				
832	0.0				
833	0.0				
834	0.0				
835	0.0				
836	0.0				
837	0.0				
838	0.0				
839	0.0				
840	0.0				
841	0.0				
842	0.0				
843	0.0				
844	0.0				
845	0.0				
846	0.0				
847	0.0				
848	0.0				
849	0.0				
850	0.0				
851	0.0				
852	0.0				
853	0.0				
854	0.0				
855	0.0				
856	0.0				
857	0.0				
858	0.0				
859	0.0				
860	0.0				
861	0.0				
862	0.0				
863	0.0				
864	0.0				
865	0.0				
866	0.0				
867	0.0				
868	0.0				
869	0.0				
870	0.0				
871	0.0				
872	0.0				
873	0.0				
874	0.0				
875	0.0				
876	0.0				
877	0.0				
878	0.0				
879	0.0				
880	0.0				
881	0.0				
882	0.0				
883	0.0				
884	0.0				
885	0.0				
886	0.0				
887	0.0				
888	0.0				
889	0.0				
890	0.0				
891	0.0				
892	0.0				
893	0.0				
894	0.0				
895	0.0				
896	0.0				
897	0.0				
898	0.0				
899	0.0				
900	0.0				
901	0.0				
902	0.0				
903	0.0				
904	0.0				
905	0.0				
906	0.0				
907	0.0				
908	0.0				
909	0.0				
910	0.0				
911	0.0				
912	0.0				
913	0.0				
914	0.0				
915	0.0				
916	0.0				
917	0.0				
918	0.0				
919	0.001				
920	0.001				
921	0.001				
922	0.001				
923	0.001				
924	0.001				
925	0.001				
926	0.001				
927	0.002				
928	0.002				
929	0.002				
930	0.002				
931	0.002				
932	0.003				
933	0.003				
934	0.003				
935	0.004				
936	0.004				
937	0.004				
938	0.005				
939	0.006				
940	0.007				
941	0.008				
942	0.01				
943	0.013				
944	0.017				
945	0.022				
946	0.03				
947	0.042				
948	0.06				
949	0.086				
950	0.127				
951	0.186				
952	0.28				
953	0.415				
954	0.61				
955	0.898				
956	1.226				
957	1.892				
958	3.016				
959	5.119				
960	9.64				
961	19.06				
962	30.995				
963	27.396				
964	16.795				
965	10.364				
966	7.239				
967	5.586				
968	4.66				
969	4.156				
970	3.908				
971	3.837				
972	3.883				
973	4.053				
974	4.292				
975	4.617				
976	4.989				
977	5.393				
978	5.843				
979	6.28				
980	6.78				
981	7.342				
982	8.03				
983	8.881				
984	10.067				
985	11.623				
986	13.886				
987	16.967				
988	21.422				
989	27.682				
990	36.078				
991	46.539				
992	56.593				
993	62.503				
994	62.278				
995	57.195				
996	50.553				
997	44.205				
998	39.167				
999	35.138				
1000	32.084				
1001	29.604				
1002	27.442				
1003	25.551				
1004	23.665				
1005	21.881				
1006	20.21				
1007	18.573				
1008	17.189				
1009	16.002				
1010	15.036				
1011	14.328				
1012	13.861				
1013	13.643				
1014	13.678				
1015	13.978				
1016	14.555				
1017	15.473				
1018	16.741				
1019	18.43				
1020	20.719				
1021	23.52				
1022	27.009				
1023	31.29				
1024	36.173				
1025	41.653				
1026	47.292				
1027	52.802				
1028	57.83				
1029	62.074				
1030	65.639				
1031	68.581				
1032	71.073				
1033	73.409				
1034	75.285				
1035	76.582				
1036	76.869				
1037	75.679				
1038	72.736				
1039	68.146				
1040	62.375				
1041	56.03				
1042	49.97				
1043	44.298				
1044	39.485				
1045	35.512				
1046	32.188				
1047	29.697				
1048	27.777				
1049	26.369				
1050	25.435				
1051	24.887				
1052	24.696				
1053	24.81				
1054	25.199				
1055	25.819				
1056	26.638				
1057	27.561				
1058	28.53				
1059	29.539				
1060	30.389				
1061	31.091				
1062	31.601				
1063	31.895				
1064	32.035				
1065	32.061				
1066	32.062				
1067	32.114				
1068	32.301				
1069	32.711				
1070	33.39				
1071	34.398				
1072	35.886				
1073	37.804				
1074	40.275				
1075	43.447				
1076	47.286				
1077	51.945				
1078	57.296				
1079	63.33				
1080	69.883				
1081	76.331				
1082	82.505				
1083	87.572				
1084	91.123				
1085	93.038				
1086	93.218				
1087	92.073				
1088	90.017				
1089	87.603				
1090	85.092				
1091	82.768				
1092	80.661				
1093	78.848				
1094	77.376				
1095	76.122				
1096	75.072				
1097	73.968				
1098	72.618				
1099	71.0				
1100	69.191				
