Wavelength	Transmittance	hex_color	Manufacturer	Name	Filter Number
350	4.1		Chroma		nd153transv20
351	4.093				
352	4.079				
353	4.099				
354	4.078				
355	4.084				
356	4.088				
357	4.083				
358	4.085				
359	4.08				
360	4.068				
361	4.066				
362	4.058				
363	4.062				
364	4.054				
365	4.056				
366	4.044				
367	4.043				
368	4.028				
369	4.038				
370	4.027				
371	4.026				
372	4.015				
373	4.014				
374	4.001				
375	4.0				
376	3.997				
377	3.986				
378	3.986				
379	3.975				
380	3.967				
381	3.962				
382	3.955				
383	3.947				
384	3.944				
385	3.941				
386	3.924				
387	3.924				
388	3.916				
389	3.906				
390	3.905				
391	3.9				
392	3.881				
393	3.878				
394	3.873				
395	3.862				
396	3.858				
397	3.85				
398	3.84				
399	3.841				
400	3.821				
401	3.824				
402	3.814				
403	3.808				
404	3.795				
405	3.792				
406	3.784				
407	3.774				
408	3.763				
409	3.756				
410	3.751				
411	3.742				
412	3.737				
413	3.732				
414	3.72				
415	3.709				
416	3.707				
417	3.699				
418	3.686				
419	3.679				
420	3.672				
421	3.667				
422	3.662				
423	3.652				
424	3.646				
425	3.64				
426	3.631				
427	3.622				
428	3.613				
429	3.601				
430	3.601				
431	3.593				
432	3.585				
433	3.581				
434	3.572				
435	3.563				
436	3.556				
437	3.55				
438	3.542				
439	3.536				
440	3.528				
441	3.52				
442	3.512				
443	3.5				
444	3.496				
445	3.496				
446	3.485				
447	3.475				
448	3.472				
449	3.466				
450	3.461				
451	3.453				
452	3.448				
453	3.44				
454	3.432				
455	3.426				
456	3.423				
457	3.415				
458	3.41				
459	3.403				
460	3.396				
461	3.386				
462	3.385				
463	3.379				
464	3.373				
465	3.366				
466	3.364				
467	3.358				
468	3.35				
469	3.345				
470	3.342				
471	3.335				
472	3.325				
473	3.323				
474	3.321				
475	3.315				
476	3.309				
477	3.303				
478	3.298				
479	3.293				
480	3.289				
481	3.284				
482	3.278				
483	3.28				
484	3.268				
485	3.265				
486	3.26				
487	3.26				
488	3.254				
489	3.245				
490	3.239				
491	3.237				
492	3.233				
493	3.228				
494	3.22				
495	3.218				
496	3.213				
497	3.212				
498	3.204				
499	3.202				
500	3.198				
501	3.193				
502	3.187				
503	3.186				
504	3.185				
505	3.178				
506	3.175				
507	3.173				
508	3.165				
509	3.162				
510	3.161				
511	3.156				
512	3.152				
513	3.15				
514	3.147				
515	3.139				
516	3.14				
517	3.137				
518	3.132				
519	3.127				
520	3.123				
521	3.119				
522	3.118				
523	3.115				
524	3.113				
525	3.111				
526	3.107				
527	3.103				
528	3.1				
529	3.096				
530	3.096				
531	3.093				
532	3.089				
533	3.088				
534	3.086				
535	3.082				
536	3.082				
537	3.076				
538	3.073				
539	3.07				
540	3.069				
541	3.066				
542	3.062				
543	3.061				
544	3.059				
545	3.056				
546	3.051				
547	3.055				
548	3.048				
549	3.05				
550	3.046				
551	3.046				
552	3.039				
553	3.038				
554	3.04				
555	3.03				
556	3.031				
557	3.029				
558	3.029				
559	3.024				
560	3.025				
561	3.019				
562	3.017				
563	3.022				
564	3.016				
565	3.016				
566	3.014				
567	3.011				
568	3.008				
569	3.005				
570	3.003				
571	3.003				
572	3.004				
573	2.997				
574	3.0				
575	2.998				
576	2.99				
577	2.99				
578	2.989				
579	2.99				
580	2.987				
581	2.983				
582	2.981				
583	2.979				
584	2.978				
585	2.978				
586	2.975				
587	2.974				
588	2.97				
589	2.967				
590	2.967				
591	2.969				
592	2.967				
593	2.963				
594	2.962				
595	2.962				
596	2.957				
597	2.96				
598	2.956				
599	2.957				
600	2.955				
601	2.957				
602	2.95				
603	2.954				
604	2.947				
605	2.948				
606	2.947				
607	2.942				
608	2.943				
609	2.943				
610	2.938				
611	2.941				
612	2.939				
613	2.933				
614	2.932				
615	2.932				
616	2.933				
617	2.93				
618	2.931				
619	2.927				
620	2.928				
621	2.925				
622	2.927				
623	2.925				
624	2.924				
625	2.925				
626	2.923				
627	2.922				
628	2.917				
629	2.915				
630	2.916				
631	2.913				
632	2.915				
633	2.918				
634	2.913				
635	2.913				
636	2.912				
637	2.908				
638	2.908				
639	2.906				
640	2.906				
641	2.906				
642	2.904				
643	2.901				
644	2.904				
645	2.9				
646	2.902				
647	2.899				
648	2.896				
649	2.898				
650	2.898				
651	2.893				
652	2.896				
653	2.893				
654	2.892				
655	2.891				
656	2.892				
657	2.892				
658	2.893				
659	2.889				
660	2.887				
661	2.89				
662	2.887				
663	2.882				
664	2.885				
665	2.881				
666	2.88				
667	2.88				
668	2.879				
669	2.881				
670	2.879				
671	2.877				
672	2.876				
673	2.873				
674	2.873				
675	2.872				
676	2.873				
677	2.869				
678	2.871				
679	2.869				
680	2.871				
681	2.873				
682	2.867				
683	2.866				
684	2.865				
685	2.866				
686	2.864				
687	2.864				
688	2.864				
689	2.862				
690	2.862				
691	2.861				
692	2.861				
693	2.86				
694	2.856				
695	2.854				
696	2.858				
697	2.85				
698	2.854				
699	2.85				
700	2.854				
701	2.855				
702	2.853				
703	2.853				
704	2.853				
705	2.851				
706	2.846				
707	2.85				
708	2.845				
709	2.847				
710	2.85				
711	2.844				
712	2.845				
713	2.846				
714	2.844				
715	2.843				
716	2.841				
717	2.843				
718	2.841				
719	2.845				
720	2.838				
721	2.836				
722	2.833				
723	2.843				
724	2.835				
725	2.835				
726	2.838				
727	2.837				
728	2.835				
729	2.834				
730	2.833				
731	2.832				
732	2.836				
733	2.832				
734	2.831				
735	2.832				
736	2.83				
737	2.825				
738	2.826				
739	2.827				
740	2.826				
741	2.828				
742	2.822				
743	2.828				
744	2.832				
745	2.831				
746	2.827				
747	2.824				
748	2.83				
749	2.822				
750	0.349				
