Wavelength	Transmittance	hex_color	Manufacturer	Name	Filter Number
300	0.0		Chroma		et850sp2p0
301	0.0				
302	0.0				
303	0.0				
304	0.0				
305	0.0				
306	0.0				
307	0.0				
308	0.0				
309	0.0				
310	0.0				
311	0.0				
312	0.0				
313	0.0				
314	0.0				
315	0.0				
316	0.0				
317	0.0				
318	0.0				
319	0.0				
320	0.0				
321	0.0				
322	0.0				
323	0.0				
324	0.0				
325	0.0				
326	0.0				
327	0.0				
328	0.0				
329	0.0				
330	0.0				
331	0.0				
332	0.0				
333	0.0				
334	0.0				
335	0.0				
336	0.0				
337	0.0				
338	0.0				
339	0.0				
340	0.0				
341	0.0				
342	0.0				
343	0.0				
344	0.0				
345	0.0				
346	0.0				
347	0.0				
348	0.0				
349	0.0				
350	0.0				
351	0.0				
352	0.0				
353	0.0				
354	0.0				
355	0.0				
356	0.0				
357	0.0				
358	0.0				
359	0.0				
360	0.0				
361	0.0				
362	0.0				
363	0.0				
364	0.0				
365	0.0				
366	0.0				
367	0.0				
368	0.0				
369	0.0				
370	0.0				
371	0.0				
372	0.0				
373	0.0				
374	0.0				
375	0.0				
376	0.0				
377	0.0				
378	0.0				
379	0.0				
380	0.0				
381	0.0				
382	0.0				
383	0.0				
384	0.0				
385	0.0				
386	0.0				
387	0.004				
388	0.026				
389	9.023				
390	48.417				
391	74.315				
392	80.8				
393	83.347				
394	83.76				
395	85.084				
396	86.814				
397	88.107				
398	88.684				
399	89.969				
400	90.235				
401	89.949				
402	91.081				
403	92.22				
404	92.281				
405	91.539				
406	91.342				
407	91.465				
408	91.76				
409	92.522				
410	92.548				
411	91.787				
412	93.4				
413	93.811				
414	94.497				
415	93.944				
416	90.978				
417	92.396				
418	94.589				
419	93.945				
420	93.392				
421	95.449				
422	93.735				
423	92.03				
424	95.052				
425	95.535				
426	94.234				
427	93.204				
428	95.173				
429	94.724				
430	93.657				
431	94.707				
432	96.026				
433	96.349				
434	95.211				
435	96.429				
436	96.178				
437	94.896				
438	94.462				
439	95.767				
440	95.182				
441	96.403				
442	97.077				
443	96.108				
444	93.531				
445	92.966				
446	92.906				
447	93.624				
448	95.01				
449	96.578				
450	97.308				
451	96.238				
452	95.18				
453	95.472				
454	95.557				
455	96.663				
456	96.671				
457	95.447				
458	94.414				
459	94.911				
460	96.217				
461	96.831				
462	96.933				
463	95.728				
464	94.982				
465	96.64				
466	97.242				
467	97.641				
468	97.527				
469	97.338				
470	96.661				
471	96.148				
472	96.736				
473	97.668				
474	98.231				
475	97.584				
476	96.125				
477	95.279				
478	93.769				
479	92.973				
480	95.069				
481	95.563				
482	94.807				
483	92.792				
484	92.738				
485	94.93				
486	96.586				
487	97.206				
488	97.041				
489	95.767				
490	94.659				
491	96.015				
492	95.754				
493	95.505				
494	94.695				
495	94.705				
496	95.741				
497	95.793				
498	92.69				
499	92.554				
500	94.156				
501	94.463				
502	95.552				
503	95.589				
504	96.114				
505	94.855				
506	93.107				
507	93.214				
508	94.179				
509	94.692				
510	95.61				
511	94.366				
512	91.418				
513	89.964				
514	91.211				
515	93.446				
516	94.525				
517	96.61				
518	97.498				
519	96.814				
520	96.465				
521	96.67				
522	96.21				
523	96.363				
524	97.183				
525	97.529				
526	96.941				
527	96.221				
528	95.234				
529	94.146				
530	92.696				
531	92.896				
532	94.399				
533	95.424				
534	96.131				
535	96.812				
536	96.685				
537	96.57				
538	97.624				
539	97.974				
540	98.163				
541	97.832				
542	97.085				
543	97.604				
544	98.249				
545	98.504				
546	98.097				
547	96.767				
548	96.462				
549	96.361				
550	96.49				
551	96.938				
552	97.234				
553	97.724				
554	98.343				
555	97.391				
556	96.798				
557	97.031				
558	97.594				
559	98.007				
560	97.74				
561	97.618				
562	97.201				
563	97.219				
564	97.522				
565	98.091				
566	98.251				
567	98.345				
568	98.47				
569	97.733				
570	97.696				
571	97.803				
572	97.509				
573	96.59				
574	96.538				
575	96.912				
576	96.746				
577	96.116				
578	95.473				
579	94.496				
580	93.797				
581	94.414				
582	95.486				
583	95.872				
584	96.016				
585	96.617				
586	96.735				
587	97.091				
588	97.326				
589	97.718				
590	97.447				
591	96.929				
592	95.993				
593	95.794				
594	96.747				
595	97.033				
596	96.593				
597	96.549				
598	96.307				
599	95.381				
600	95.587				
601	96.62				
602	96.181				
603	95.261				
604	95.565				
605	96.65				
606	97.095				
607	97.344				
608	97.845				
609	98.309				
610	98.222				
611	98.103				
612	97.542				
613	97.437				
614	97.401				
615	96.543				
616	95.726				
617	96.031				
618	96.445				
619	95.352				
620	94.3				
621	94.34				
622	95.038				
623	95.47				
624	95.744				
625	96.616				
626	97.239				
627	97.018				
628	97.08				
629	98.085				
630	98.587				
631	97.478				
632	96.341				
633	96.045				
634	96.574				
635	96.913				
636	97.413				
637	97.277				
638	96.944				
639	97.376				
640	98.24				
641	98.424				
642	97.384				
643	96.644				
644	97.199				
645	97.361				
646	96.575				
647	95.852				
648	96.571				
649	97.346				
650	96.989				
651	96.533				
652	97.246				
653	98.022				
654	97.866				
655	96.435				
656	95.828				
657	95.425				
658	94.925				
659	94.829				
660	95.098				
661	94.95				
662	95.055				
663	96.06				
664	97.251				
665	97.994				
666	97.928				
667	97.611				
668	97.993				
669	98.449				
670	98.342				
671	98.453				
672	98.539				
673	97.895				
674	97.124				
675	96.735				
676	96.817				
677	97.416				
678	97.222				
679	96.634				
680	95.626				
681	95.034				
682	94.831				
683	95.483				
684	96.828				
685	96.608				
686	95.377				
687	94.683				
688	95.203				
689	95.878				
690	96.205				
691	95.331				
692	94.768				
693	94.966				
694	94.984				
695	95.777				
696	96.69				
697	97.175				
698	96.296				
699	93.862				
700	92.814				
701	93.256				
702	94.002				
703	93.568				
704	91.336				
705	89.99				
706	91.133				
707	92.647				
708	94.732				
709	96.414				
710	96.753				
711	97.918				
712	97.724				
713	97.323				
714	96.239				
715	95.733				
716	95.032				
717	93.489				
718	92.883				
719	93.026				
720	93.673				
721	95.576				
722	97.243				
723	96.95				
724	96.484				
725	96.738				
726	97.257				
727	96.392				
728	96.05				
729	95.314				
730	95.425				
731	95.317				
732	96.006				
733	96.46				
734	97.421				
735	98.52				
736	98.473				
737	98.184				
738	97.515				
739	97.856				
740	97.514				
741	97.088				
742	96.509				
743	96.235				
744	96.454				
745	96.399				
746	96.793				
747	97.064				
748	98.603				
749	98.616				
750	99.414				
751	98.452				
752	98.045				
753	97.118				
754	96.385				
755	96.816				
756	95.911				
757	95.642				
758	95.548				
759	95.345				
760	95.292				
761	95.216				
762	95.744				
763	96.048				
764	96.316				
765	95.231				
766	94.748				
767	95.778				
768	95.856				
769	96.423				
770	97.584				
771	97.131				
772	97.986				
773	97.277				
774	97.283				
775	97.317				
776	96.672				
777	96.64				
778	96.704				
779	95.611				
780	96.225				
781	95.124				
782	95.689				
783	96.58				
784	97.277				
785	98.057				
786	98.468				
787	97.781				
788	98.226				
789	98.205				
790	97.855				
791	96.773				
792	96.406				
793	95.86				
794	96.514				
795	98.516				
796	97.61				
797	97.451				
798	96.501				
799	96.029				
800	97.735				
801	98.265				
802	98.496				
803	97.673				
804	97.795				
805	97.377				
806	95.883				
807	95.285				
808	94.626				
809	94.799				
810	95.484				
811	96.654				
812	98.62				
813	96.721				
814	98.307				
815	96.219				
816	97.288				
817	97.468				
818	96.815				
819	96.413				
820	95.984				
821	96.299				
822	95.958				
823	95.366				
824	95.579				
825	95.281				
826	96.882				
827	97.0				
828	96.251				
829	96.687				
830	94.635				
831	95.442				
832	94.405				
833	95.01				
834	95.616				
835	95.729				
836	95.025				
837	94.705				
838	96.017				
839	98.804				
840	97.763				
841	97.935				
842	96.791				
843	95.523				
844	97.147				
845	95.184				
846	93.784				
847	92.028				
848	91.771				
849	75.192				
850	21.093				
851	1.68				
852	0.141				
853	0.017				
854	0.004				
855	0.001				
856	0.001				
857	0.001				
858	0.0				
859	0.0				
860	0.0				
861	0.0				
862	0.001				
863	0.0				
864	0.001				
865	0.001				
866	0.0				
867	0.002				
868	0.001				
869	0.0				
870	0.0				
871	0.0				
872	0.0				
873	0.002				
874	0.0				
875	0.0				
876	0.0				
877	0.0				
878	0.003				
879	0.001				
880	0.0				
881	0.0				
882	0.0				
883	0.0				
884	0.0				
885	0.0				
886	0.0				
887	0.0				
888	0.0				
889	0.0				
890	0.0				
891	0.0				
892	0.0				
893	0.0				
894	0.0				
895	0.0				
896	0.0				
897	0.0				
898	0.0				
899	0.0				
900	0.0				
901	0.0				
902	0.0				
903	0.0				
904	0.0				
905	0.0				
906	0.0				
907	0.0				
908	0.0				
909	0.0				
910	0.0				
911	0.0				
912	0.0				
913	0.0				
914	0.0				
915	0.0				
916	0.0				
917	0.0				
918	0.0				
919	0.0				
920	0.0				
921	0.0				
922	0.0				
923	0.0				
924	0.0				
925	0.0				
926	0.0				
927	0.0				
928	0.0				
929	0.0				
930	0.0				
931	0.0				
932	0.0				
933	0.0				
934	0.0				
935	0.0				
936	0.0				
937	0.0				
938	0.0				
939	0.0				
940	0.0				
941	0.0				
942	0.0				
943	0.0				
944	0.0				
945	0.0				
946	0.0				
947	0.0				
948	0.0				
949	0.0				
950	0.0				
951	0.0				
952	0.0				
953	0.0				
954	0.0				
955	0.0				
956	0.0				
957	0.0				
958	0.0				
959	0.0				
960	0.0				
961	0.0				
962	0.0				
963	0.0				
964	0.0				
965	0.0				
966	0.0				
967	0.0				
968	0.0				
969	0.0				
970	0.0				
971	0.0				
972	0.0				
973	0.0				
974	0.0				
975	0.0				
976	0.0				
977	0.0				
978	0.0				
979	0.0				
980	0.0				
981	0.0				
982	0.0				
983	0.0				
984	0.0				
985	0.0				
986	0.0				
987	0.0				
988	0.0				
989	0.0				
990	0.0				
991	0.0				
992	0.0				
993	0.0				
994	0.0				
995	0.0				
996	0.0				
997	0.0				
998	0.0				
999	0.0				
1000	0.0				
1001	0.0				
1002	0.0				
1003	0.0				
1004	0.0				
1005	0.0				
1006	0.0				
1007	0.0				
1008	0.0				
1009	0.0				
1010	0.0				
1011	0.0				
1012	0.0				
1013	0.0				
1014	0.0				
1015	0.0				
1016	0.0				
1017	0.0				
1018	0.0				
1019	0.0				
1020	0.0				
1021	0.0				
1022	0.0				
1023	0.0				
1024	0.0				
1025	0.0				
1026	0.0				
1027	0.0				
1028	0.0				
1029	0.0				
1030	0.0				
1031	0.0				
1032	0.0				
1033	0.0				
1034	0.0				
1035	0.0				
1036	0.0				
1037	0.0				
1038	0.0				
1039	0.0				
1040	0.0				
1041	0.0				
1042	0.0				
1043	0.0				
1044	0.0				
1045	0.0				
1046	0.0				
1047	0.0				
1048	0.0				
1049	0.0				
1050	0.0				
1051	0.0				
1052	0.0				
1053	0.0				
1054	0.0				
1055	0.0				
1056	0.0				
1057	0.0				
1058	0.0				
1059	0.0				
1060	0.0				
1061	0.0				
1062	0.0				
1063	0.0				
1064	0.0				
1065	0.0				
1066	0.0				
1067	0.0				
1068	0.0				
1069	0.0				
1070	0.0				
1071	0.0				
1072	0.0				
1073	0.0				
1074	0.0				
1075	0.0				
1076	0.0				
1077	0.0				
1078	0.0				
1079	0.0				
1080	0.0				
1081	0.0				
1082	0.0				
1083	0.0				
1084	0.0				
1085	0.0				
1086	0.0				
1087	0.0				
1088	0.0				
1089	0.0				
1090	0.0				
1091	0.0				
1092	0.0				
1093	0.0				
1094	0.0				
1095	0.0				
1096	0.0				
1097	0.0				
1098	0.0				
1099	0.0				
1100	0.0				
