Wavelength	Transmittance	hex_color	Manufacturer	Name	Filter Number
300	0.0		Chroma		ET340x
301	0.0				
302	0.0				
303	0.0				
304	0.0				
305	0.0				
306	0.0				
307	0.0				
308	0.0				
309	0.0				
310	0.0				
311	0.0				
312	0.0				
313	0.0				
314	0.0				
315	0.0				
316	0.0				
317	0.0				
318	0.0				
319	0.0				
320	0.001				
321	0.001				
322	0.002				
323	0.003				
324	0.006				
325	0.012				
326	0.021				
327	0.046				
328	0.089				
329	0.206				
330	0.487				
331	1.24				
332	2.681				
333	8.659				
334	23.604				
335	46.445				
336	80.176				
337	91.156				
338	91.165				
339	92.805				
340	92.555				
341	92.988				
342	93.449				
343	93.348				
344	92.447				
345	89.038				
346	81.433				
347	60.412				
348	31.952				
349	11.413				
350	3.895				
351	1.788				
352	1.012				
353	0.553				
354	0.321				
355	0.22				
356	0.146				
357	0.084				
358	0.05				
359	0.034				
360	0.026				
361	0.019				
362	0.012				
363	0.008				
364	0.005				
365	0.003				
366	0.002				
367	0.002				
368	0.002				
369	0.001				
370	0.001				
371	0.001				
372	0.001				
373	0.0				
374	0.0				
375	0.0				
376	0.0				
377	0.0				
378	0.0				
379	0.0				
380	0.0				
381	0.0				
382	0.0				
383	0.0				
384	0.0				
385	0.0				
386	0.0				
387	0.0				
388	0.0				
389	0.0				
390	0.0				
391	0.0				
392	0.0				
393	0.0				
394	0.0				
395	0.0				
396	0.0				
397	0.0				
398	0.0				
399	0.0				
400	0.0				
401	0.0				
402	0.0				
403	0.0				
404	0.0				
405	0.0				
406	0.0				
407	0.0				
408	0.0				
409	0.0				
410	0.0				
411	0.0				
412	0.0				
413	0.0				
414	0.0				
415	0.0				
416	0.0				
417	0.0				
418	0.0				
419	0.0				
420	0.0				
421	0.0				
422	0.0				
423	0.0				
424	0.0				
425	0.0				
426	0.0				
427	0.0				
428	0.0				
429	0.0				
430	0.0				
431	0.0				
432	0.0				
433	0.0				
434	0.0				
435	0.0				
436	0.0				
437	0.0				
438	0.0				
439	0.0				
440	0.0				
441	0.0				
442	0.0				
443	0.0				
444	0.0				
445	0.0				
446	0.0				
447	0.0				
448	0.0				
449	0.0				
450	0.0				
451	0.0				
452	0.0				
453	0.0				
454	0.0				
455	0.0				
456	0.0				
457	0.0				
458	0.0				
459	0.0				
460	0.0				
461	0.0				
462	0.0				
463	0.0				
464	0.0				
465	0.0				
466	0.0				
467	0.0				
468	0.0				
469	0.0				
470	0.0				
471	0.0				
472	0.0				
473	0.0				
474	0.0				
475	0.0				
476	0.0				
477	0.0				
478	0.0				
479	0.0				
480	0.0				
481	0.0				
482	0.0				
483	0.0				
484	0.0				
485	0.0				
486	0.0				
487	0.0				
488	0.0				
489	0.0				
490	0.0				
491	0.0				
492	0.0				
493	0.0				
494	0.0				
495	0.0				
496	0.0				
497	0.0				
498	0.0				
499	0.0				
500	0.0				
501	0.0				
502	0.0				
503	0.0				
504	0.0				
505	0.0				
506	0.0				
507	0.0				
508	0.0				
509	0.0				
510	0.0				
511	0.0				
512	0.0				
513	0.0				
514	0.0				
515	0.0				
516	0.0				
517	0.0				
518	0.0				
519	0.0				
520	0.0				
521	0.0				
522	0.0				
523	0.0				
524	0.0				
525	0.0				
526	0.0				
527	0.0				
528	0.0				
529	0.0				
530	0.0				
531	0.0				
532	0.0				
533	0.0				
534	0.0				
535	0.0				
536	0.0				
537	0.0				
538	0.0				
539	0.0				
540	0.0				
541	0.0				
542	0.0				
543	0.0				
544	0.0				
545	0.0				
546	0.0				
547	0.0				
548	0.0				
549	0.0				
550	0.0				
551	0.0				
552	0.0				
553	0.0				
554	0.0				
555	0.0				
556	0.0				
557	0.0				
558	0.0				
559	0.0				
560	0.0				
561	0.0				
562	0.0				
563	0.0				
564	0.0				
565	0.0				
566	0.0				
567	0.0				
568	0.0				
569	0.0				
570	0.0				
571	0.0				
572	0.0				
573	0.0				
574	0.0				
575	0.0				
576	0.0				
577	0.0				
578	0.0				
579	0.0				
580	0.0				
581	0.0				
582	0.0				
583	0.0				
584	0.0				
585	0.0				
586	0.0				
587	0.0				
588	0.0				
589	0.0				
590	0.0				
591	0.0				
592	0.0				
593	0.0				
594	0.0				
595	0.0				
596	0.0				
597	0.0				
598	0.0				
599	0.0				
600	0.0				
601	0.0				
602	0.0				
603	0.0				
604	0.0				
605	0.0				
606	0.0				
607	0.0				
608	0.0				
609	0.0				
610	0.0				
611	0.0				
612	0.0				
613	0.0				
614	0.0				
615	0.0				
616	0.0				
617	0.0				
618	0.0				
619	0.0				
620	0.0				
621	0.0				
622	0.0				
623	0.0				
624	0.0				
625	0.0				
626	0.0				
627	0.0				
628	0.0				
629	0.0				
630	0.0				
631	0.0				
632	0.0				
633	0.0				
634	0.0				
635	0.0				
636	0.0				
637	0.0				
638	0.0				
639	0.0				
640	0.0				
641	0.0				
642	0.0				
643	0.0				
644	0.0				
645	0.0				
646	0.0				
647	0.0				
648	0.0				
649	0.0				
650	0.0				
651	0.0				
652	0.0				
653	0.0				
654	0.0				
655	0.0				
656	0.0				
657	0.0				
658	0.0				
659	0.0				
660	0.0				
661	0.0				
662	0.0				
663	0.0				
664	0.0				
665	0.0				
666	0.0				
667	0.0				
668	0.0				
669	0.0				
670	0.0				
671	0.0				
672	0.0				
673	0.0				
674	0.0				
675	0.0				
676	0.0				
677	0.0				
678	0.0				
679	0.0				
680	0.0				
681	0.0				
682	0.0				
683	0.0				
684	0.0				
685	0.0				
686	0.0				
687	0.0				
688	0.0				
689	0.0				
690	0.0				
691	0.0				
692	0.0				
693	0.0				
694	0.0				
695	0.0				
696	0.0				
697	0.0				
698	0.0				
699	0.0				
700	0.0				
701	0.0				
702	0.0				
703	0.0				
704	0.0				
705	0.0				
706	0.0				
707	0.0				
708	0.0				
709	0.0				
710	0.0				
711	0.0				
712	0.0				
713	0.0				
714	0.0				
715	0.0				
716	0.0				
717	0.0				
718	0.0				
719	0.0				
720	0.0				
721	0.0				
722	0.0				
723	0.0				
724	0.0				
725	0.0				
726	0.0				
727	0.0				
728	0.0				
729	0.0				
730	0.0				
731	0.0				
732	0.0				
733	0.0				
734	0.0				
735	0.0				
736	0.0				
737	0.0				
738	0.0				
739	0.0				
740	0.0				
741	0.0				
742	0.0				
743	0.0				
744	0.0				
745	0.0				
746	0.0				
747	0.0				
748	0.0				
749	0.0				
750	0.0				
751	0.0				
752	0.0				
753	0.0				
754	0.0				
755	0.0				
756	0.0				
757	0.0				
758	0.0				
759	0.0				
760	0.0				
761	0.0				
762	0.0				
763	0.0				
764	0.0				
765	0.0				
766	0.0				
767	0.0				
768	0.0				
769	0.0				
770	0.0				
771	0.0				
772	0.0				
773	0.0				
774	0.0				
775	0.0				
776	0.0				
777	0.0				
778	0.0				
779	0.0				
780	0.0				
781	0.0				
782	0.0				
783	0.0				
784	0.0				
785	0.0				
786	0.0				
787	0.0				
788	0.0				
789	0.0				
790	0.0				
791	0.0				
792	0.0				
793	0.0				
794	0.0				
795	0.0				
796	0.0				
797	0.0				
798	0.0				
799	0.0				
800	0.0				
801	0.0				
802	0.0				
803	0.0				
804	0.0				
805	0.0				
806	0.0				
807	0.0				
808	0.0				
809	0.0				
810	0.0				
811	0.0				
812	0.0				
813	0.0				
814	0.0				
815	0.0				
816	0.0				
817	0.0				
818	0.0				
819	0.0				
820	0.0				
821	0.0				
822	0.0				
823	0.0				
824	0.0				
825	0.0				
826	0.0				
827	0.0				
828	0.0				
829	0.0				
830	0.0				
831	0.0				
832	0.0				
833	0.0				
834	0.0				
835	0.0				
836	0.0				
837	0.0				
838	0.0				
839	0.0				
840	0.0				
841	0.0				
842	0.0				
843	0.0				
844	0.0				
845	0.0				
846	0.0				
847	0.0				
848	0.0				
849	0.0				
850	0.0				
851	0.0				
852	0.0				
853	0.0				
854	0.0				
855	0.0				
856	0.0				
857	0.0				
858	0.0				
859	0.0				
860	0.0				
861	0.0				
862	0.0				
863	0.0				
864	0.001				
865	0.0				
866	0.0				
867	0.001				
868	0.001				
869	0.001				
870	0.001				
871	0.001				
872	0.001				
873	0.001				
874	0.002				
875	0.001				
876	0.002				
877	0.002				
878	0.001				
879	0.002				
880	0.002				
881	0.002				
882	0.002				
883	0.003				
884	0.003				
885	0.003				
886	0.004				
887	0.004				
888	0.006				
889	0.007				
890	0.009				
891	0.011				
892	0.014				
893	0.019				
894	0.026				
895	0.035				
896	0.048				
897	0.068				
898	0.094				
899	0.135				
900	0.194				
901	0.276				
902	0.386				
903	0.53				
904	0.704				
905	0.917				
906	1.167				
907	1.468				
908	1.855				
909	2.379				
910	3.153				
911	4.333				
912	6.255				
913	9.689				
914	15.805				
915	27.216				
916	43.948				
917	54.024				
918	47.382				
919	35.466				
920	26.826				
921	21.757				
922	18.904				
923	17.353				
924	16.921				
925	17.322				
926	18.651				
927	20.835				
928	24.178				
929	28.895				
930	35.328				
931	43.914				
932	52.845				
933	61.302				
934	66.965				
935	66.463				
936	63.603				
937	58.526				
938	53.615				
939	49.578				
940	47.159				
941	45.727				
942	45.195				
943	46.461				
944	48.498				
945	51.518				
946	55.602				
947	60.242				
948	63.895				
949	68.024				
950	69.294				
951	68.732				
952	66.06				
953	62.705				
954	58.006				
955	53.403				
956	49.522				
957	46.463				
958	44.572				
959	42.283				
960	41.719				
961	41.374				
962	42.687				
963	43.286				
964	46.438				
965	48.66				
966	53.838				
967	56.945				
968	63.031				
969	67.199				
970	73.086				
971	77.363				
972	79.503				
973	80.125				
974	78.843				
975	76.595				
976	72.087				
977	69.304				
978	64.859				
979	61.57				
980	59.674				
981	56.937				
982	55.721				
983	55.845				
984	55.398				
985	55.805				
986	57.842				
987	59.637				
988	61.694				
989	65.661				
990	68.535				
991	72.016				
992	75.863				
993	79.17				
994	80.567				
995	82.275				
996	83.079				
997	81.108				
998	79.035				
999	77.354				
1000	74.56				
1001	71.69				
1002	68.623				
1003	66.103				
1004	65.102				
1005	64.728				
1006	63.781				
1007	62.924				
1008	63.374				
1009	64.879				
1010	67.623				
1011	70.172				
1012	73.358				
1013	75.051				
1014	78.274				
1015	82.005				
1016	86.688				
1017	89.717				
1018	91.67				
1019	92.319				
1020	92.027				
1021	90.494				
1022	88.338				
1023	85.185				
1024	81.012				
1025	77.041				
1026	71.661				
1027	68.451				
1028	64.934				
1029	62.423				
1030	60.412				
1031	58.869				
1032	57.624				
1033	56.615				
1034	56.04				
1035	56.075				
1036	56.329				
1037	56.891				
1038	58.035				
1039	59.393				
1040	61.046				
1041	63.56				
1042	65.524				
1043	68.247				
1044	71.126				
1045	73.794				
1046	76.176				
1047	78.699				
1048	80.672				
1049	82.081				
1050	83.057				
1051	83.068				
1052	83.169				
1053	81.553				
1054	80.099				
1055	78.49				
1056	76.463				
1057	74.083				
1058	71.812				
1059	69.684				
1060	68.656				
1061	67.899				
1062	66.983				
1063	66.346				
1064	65.123				
1065	63.915				
1066	62.017				
1067	61.855				
1068	62.385				
1069	63.751				
1070	63.891				
1071	63.831				
1072	63.297				
1073	62.959				
1074	63.361				
1075	64.852				
1076	65.548				
1077	65.717				
1078	65.071				
1079	64.16				
1080	64.87				
1081	66.056				
1082	66.207				
1083	64.694				
1084	63.587				
1085	64.539				
1086	65.997				
1087	64.916				
1088	63.392				
1089	63.691				
1090	65.414				
1091	65.002				
1092	63.783				
1093	64.578				
1094	66.035				
1095	65.537				
1096	64.34				
1097	66.736				
1098	68.302				
1099	66.345				
1100	66.416				
